Experiment	bias spectroscopy	
Date	14.01.2016 15:19:44	
User		
X (m)	0E+0	
Y (m)	0E+0	
Z (m)	300E-9	
Z offset (m)	0E+0	
Settling time (s)	5E-3	
Integration time (s)	1E-3	
Z-Ctrl hold	TRUE	
Final Z (m)	300E-9	
Filter type	Gaussian	
Order	6	
Cutoff frq		

[DATA]
Bias calc (V)	Current (A)	Current [bwd] (A)	Current (A) [filt]	Current (A) [bwd] [filt]
-52.0000E+0	36.9290E-12	48.6081E-12	36.9290E-12	48.6081E-12
-52.0500E+0	41.3754E-12	57.2202E-12	38.2213E-12	50.9411E-12
-52.1000E+0	34.3869E-12	54.1165E-12	39.7019E-12	53.6097E-12
-52.1500E+0	35.1438E-12	53.1522E-12	41.2997E-12	55.9653E-12
-52.2000E+0	43.8413E-12	55.4257E-12	42.7109E-12	58.1763E-12
-52.2500E+0	40.8750E-12	63.8089E-12	44.3555E-12	60.5992E-12
-52.3000E+0	45.8432E-12	60.8212E-12	46.0520E-12	63.0025E-12
-52.3500E+0	50.6467E-12	66.0977E-12	47.5356E-12	64.9638E-12
-52.4000E+0	57.1195E-12	72.4484E-12	49.0773E-12	66.7291E-12
-52.4500E+0	52.7432E-12	70.2542E-12	50.8706E-12	68.7981E-12
-52.5000E+0	51.6232E-12	67.9013E-12	52.5455E-12	70.8259E-12
-52.5500E+0	55.0931E-12	74.3741E-12	53.9926E-12	72.8957E-12
-52.6000E+0	49.3619E-12	73.3273E-12	55.5969E-12	75.0065E-12
-52.6500E+0	50.8725E-12	72.2592E-12	56.9570E-12	77.2255E-12
-52.7000E+0	59.4754E-12	76.7850E-12	58.3115E-12	79.2765E-12
-52.7500E+0	62.3868E-12	83.4836E-12	59.7962E-12	81.5172E-12
-52.8000E+0	62.7652E-12	82.6444E-12	61.2451E-12	83.8626E-12
-52.8500E+0	65.3836E-12	87.2647E-12	62.5344E-12	86.0507E-12
-52.9000E+0	66.3083E-12	94.3631E-12	63.8252E-12	88.2334E-12
-52.9500E+0	63.2932E-12	91.1801E-12	65.5784E-12	90.5252E-12
-53.0000E+0	66.5250E-12	89.6726E-12	67.1986E-12	92.8642E-12
-53.0500E+0	73.2877E-12	98.6691E-12	68.8659E-12	95.2496E-12
-53.1000E+0	65.8994E-12	96.9083E-12	70.9025E-12	97.7507E-12
-53.1500E+0	63.0795E-12	91.7478E-12	72.9598E-12	100.289E-12
-53.2000E+0	70.4099E-12	101.053E-12	74.9801E-12	102.820E-12
-53.2500E+0	80.7065E-12	104.913E-12	77.1980E-12	105.473E-12
-53.3000E+0	79.1928E-12	107.379E-12	79.4574E-12	108.278E-12
-53.3500E+0	86.8283E-12	113.809E-12	81.4460E-12	111.163E-12
-53.4000E+0	93.6490E-12	120.514E-12	83.5574E-12	113.852E-12
-53.4500E+0	87.2098E-12	116.501E-12	85.8508E-12	116.737E-12
-53.5000E+0	84.2008E-12	117.950E-12	88.3252E-12	119.830E-12
-53.5500E+0	88.5953E-12	124.484E-12	90.8333E-12	122.688E-12
-53.6000E+0	87.4021E-12	122.998E-12	93.4002E-12	125.806E-12
-53.6500E+0	86.5476E-12	124.908E-12	96.0791E-12	129.129E-12
-53.7000E+0	99.8532E-12	129.352E-12	98.7407E-12	132.298E-12
-53.7500E+0	100.134E-12	134.546E-12	101.410E-12	135.582E-12
-53.8000E+0	106.051E-12	138.211E-12	104.566E-12	139.128E-12
-53.8500E+0	113.748E-12	141.958E-12	107.642E-12	142.614E-12
-53.9000E+0	119.079E-12	151.385E-12	110.746E-12	145.991E-12
-53.9500E+0	113.321E-12	155.249E-12	114.082E-12	149.705E-12
-54.0000E+0	114.621E-12	152.044E-12	117.297E-12	153.408E-12
-54.0500E+0	116.305E-12	157.296E-12	120.252E-12	157.110E-12
-54.1000E+0	122.232E-12	158.191E-12	123.613E-12	161.115E-12
-54.1500E+0	119.558E-12	158.731E-12	126.906E-12	165.371E-12
-54.2000E+0	129.236E-12	164.059E-12	130.095E-12	169.611E-12
-54.2500E+0	137.716E-12	174.389E-12	133.240E-12	173.809E-12
-54.3000E+0	135.919E-12	177.322E-12	136.756E-12	178.162E-12
-54.3500E+0	141.659E-12	182.199E-12	140.110E-12	182.638E-12
-54.4000E+0	150.436E-12	193.680E-12	143.628E-12	186.982E-12
-54.4500E+0	149.298E-12	198.782E-12	147.084E-12	191.581E-12
-54.5000E+0	149.057E-12	196.078E-12	150.721E-12	196.132E-12
-54.5500E+0	149.539E-12	199.121E-12	154.406E-12	200.522E-12
-54.6000E+0	154.809E-12	203.372E-12	158.234E-12	204.923E-12
-54.6500E+0	154.748E-12	203.698E-12	162.396E-12	209.579E-12
-54.7000E+0	165.454E-12	208.395E-12	166.553E-12	214.140E-12
-54.7500E+0	171.274E-12	220.508E-12	170.976E-12	218.869E-12
-54.8000E+0	174.896E-12	223.111E-12	175.391E-12	223.888E-12
-54.8500E+0	184.103E-12	226.931E-12	179.868E-12	229.297E-12
-54.9000E+0	190.063E-12	237.265E-12	184.396E-12	234.588E-12
-54.9500E+0	191.034E-12	243.860E-12	188.890E-12	239.981E-12
-55.0000E+0	191.232E-12	241.751E-12	193.525E-12	245.609E-12
-55.0500E+0	202.112E-12	252.881E-12	197.949E-12	251.221E-12
-55.1000E+0	197.067E-12	259.192E-12	202.465E-12	256.718E-12
-55.1500E+0	200.772E-12	263.156E-12	207.038E-12	262.623E-12
-55.2000E+0	207.501E-12	261.761E-12	211.809E-12	268.602E-12
-55.2500E+0	216.247E-12	270.504E-12	216.645E-12	274.454E-12
-55.3000E+0	223.584E-12	279.709E-12	221.852E-12	280.539E-12
-55.3500E+0	228.561E-12	285.696E-12	226.538E-12	286.917E-12
-55.4000E+0	234.527E-12	293.844E-12	232.548E-12	292.949E-12
-55.4500E+0	236.270E-12	305.288E-12	239.182E-12	299.261E-12
-55.5000E+0	246.249E-12	307.473E-12	246.328E-12	305.978E-12
-55.5500E+0	247.827E-12	310.269E-12	253.916E-12	312.851E-12
-55.6000E+0	255.249E-12	319.647E-12	262.060E-12	319.999E-12
-55.6500E+0	240.912E-12	323.910E-12	270.447E-12	327.434E-12
-55.7000E+0	289.868E-12	324.792E-12	279.093E-12	334.937E-12
-55.7500E+0	294.095E-12	339.438E-12	287.964E-12	342.481E-12
-55.8000E+0	303.824E-12	353.564E-12	296.993E-12	350.179E-12
-55.8500E+0	311.972E-12	355.639E-12	305.430E-12	358.022E-12
-55.9000E+0	323.120E-12	370.709E-12	313.815E-12	365.965E-12
-55.9500E+0	323.987E-12	382.116E-12	321.853E-12	374.066E-12
-56.0000E+0	327.786E-12	382.873E-12	329.452E-12	382.212E-12
-56.0500E+0	336.657E-12	386.905E-12	335.917E-12	390.554E-12
-56.1000E+0	344.577E-12	398.010E-12	342.930E-12	398.676E-12
-56.1500E+0	343.795E-12	401.764E-12	349.930E-12	406.862E-12
-56.2000E+0	355.176E-12	409.253E-12	357.203E-12	415.445E-12
-56.2500E+0	364.358E-12	425.445E-12	364.607E-12	424.004E-12
-56.3000E+0	354.675E-12	432.269E-12	372.767E-12	432.989E-12
-56.3500E+0	380.764E-12	441.488E-12	381.241E-12	442.132E-12
-56.4000E+0	398.364E-12	450.143E-12	389.969E-12	451.489E-12
-56.4500E+0	400.985E-12	462.469E-12	398.970E-12	460.945E-12
-56.5000E+0	409.002E-12	471.216E-12	408.563E-12	470.926E-12
-56.5500E+0	414.398E-12	479.757E-12	418.120E-12	481.131E-12
-56.6000E+0	428.631E-12	495.663E-12	427.941E-12	491.370E-12
-56.6500E+0	434.454E-12	495.178E-12	438.501E-12	502.470E-12
-56.7000E+0	445.364E-12	504.907E-12	448.495E-12	513.850E-12
-56.7500E+0	456.433E-12	518.857E-12	458.346E-12	525.687E-12
-56.8000E+0	470.190E-12	537.008E-12	468.347E-12	537.773E-12
-56.8500E+0	478.174E-12	548.660E-12	478.380E-12	550.180E-12
-56.9000E+0	492.111E-12	560.772E-12	488.621E-12	562.686E-12
-56.9500E+0	503.506E-12	584.353E-12	497.750E-12	574.967E-12
-57.0000E+0	510.800E-12	590.951E-12	506.592E-12	588.000E-12
-57.0500E+0	518.887E-12	603.256E-12	515.058E-12	601.027E-12
-57.1000E+0	523.483E-12	613.763E-12	523.148E-12	614.084E-12
-57.1500E+0	534.073E-12	625.213E-12	530.963E-12	627.264E-12
-57.2000E+0	548.794E-12	633.761E-12	538.692E-12	640.083E-12
-57.2500E+0	536.398E-12	643.441E-12	546.300E-12	652.918E-12
-57.3000E+0	545.675E-12	668.167E-12	554.274E-12	665.630E-12
-57.3500E+0	557.715E-12	680.856E-12	562.606E-12	678.652E-12
-57.4000E+0	567.727E-12	697.256E-12	570.346E-12	691.750E-12
-57.4500E+0	579.678E-12	715.933E-12	578.198E-12	705.085E-12
-57.5000E+0	587.890E-12	713.043E-12	586.285E-12	718.706E-12
-57.5500E+0	597.320E-12	725.250E-12	595.358E-12	732.573E-12
-57.6000E+0	613.546E-12	742.996E-12	605.885E-12	746.792E-12
-57.6500E+0	621.960E-12	756.445E-12	617.025E-12	761.077E-12
-57.7000E+0	606.582E-12	770.810E-12	628.697E-12	775.802E-12
-57.7500E+0	615.649E-12	788.430E-12	641.034E-12	791.225E-12
-57.8000E+0	634.756E-12	807.202E-12	654.234E-12	807.166E-12
-57.8500E+0	673.001E-12	820.816E-12	668.114E-12	824.128E-12
-57.9000E+0	692.773E-12	838.095E-12	682.510E-12	841.379E-12
-57.9500E+0	706.762E-12	857.257E-12	697.754E-12	858.942E-12
-58.0000E+0	716.845E-12	872.363E-12	713.222E-12	876.935E-12
-58.0500E+0	727.246E-12	897.238E-12	729.530E-12	895.250E-12
-58.1000E+0	745.150E-12	916.311E-12	746.044E-12	913.808E-12
-58.1500E+0	756.213E-12	932.382E-12	762.280E-12	932.885E-12
-58.2000E+0	769.378E-12	946.829E-12	777.792E-12	952.292E-12
-58.2500E+0	801.004E-12	968.551E-12	793.885E-12	971.850E-12
-58.3000E+0	808.398E-12	989.444E-12	810.051E-12	991.548E-12
-58.3500E+0	821.335E-12	1.00902E-9	826.462E-12	1.01148E-9
-58.4000E+0	844.775E-12	1.02974E-9	843.012E-12	1.03058E-9
-58.4500E+0	860.363E-12	1.05793E-9	860.161E-12	1.04968E-9
-58.5000E+0	874.957E-12	1.07453E-9	877.289E-12	1.06898E-9
-58.5500E+0	903.198E-12	1.09134E-9	894.411E-12	1.08834E-9
-58.6000E+0	909.732E-12	1.11074E-9	911.431E-12	1.10772E-9
-58.6500E+0	922.628E-12	1.13024E-9	929.154E-12	1.12728E-9
-58.7000E+0	937.317E-12	1.13206E-9	947.189E-12	1.14712E-9
-58.7500E+0	972.244E-12	1.15616E-9	964.384E-12	1.16732E-9
-58.8000E+0	980.536E-12	1.18403E-9	981.737E-12	1.18786E-9
-58.8500E+0	994.845E-12	1.20523E-9	998.950E-12	1.20913E-9
-58.9000E+0	1.02118E-9	1.23061E-9	1.01585E-9	1.23093E-9
-58.9500E+0	1.04378E-9	1.25457E-9	1.03115E-9	1.25341E-9
-59.0000E+0	1.06103E-9	1.27628E-9	1.04811E-9	1.27654E-9
-59.0500E+0	1.05729E-9	1.29825E-9	1.06513E-9	1.30085E-9
-59.1000E+0	1.07944E-9	1.32357E-9	1.08227E-9	1.32547E-9
-59.1500E+0	1.09390E-9	1.34680E-9	1.10114E-9	1.35057E-9
-59.2000E+0	1.11626E-9	1.36732E-9	1.11813E-9	1.37600E-9
-59.2500E+0	1.08744E-9	1.39653E-9	1.13730E-9	1.40187E-9
-59.3000E+0	1.16453E-9	1.42545E-9	1.15750E-9	1.42830E-9
-59.3500E+0	1.18268E-9	1.45555E-9	1.17870E-9	1.45528E-9
-59.4000E+0	1.21201E-9	1.48292E-9	1.19869E-9	1.48252E-9
-59.4500E+0	1.25112E-9	1.51500E-9	1.21896E-9	1.51005E-9
-59.5000E+0	1.19499E-9	1.53505E-9	1.24137E-9	1.53819E-9
-59.5500E+0	1.27581E-9	1.56325E-9	1.26387E-9	1.56501E-9
-59.6000E+0	1.30369E-9	1.59423E-9	1.29001E-9	1.59383E-9
-59.6500E+0	1.32593E-9	1.62350E-9	1.31287E-9	1.62203E-9
-59.7000E+0	1.27997E-9	1.64701E-9	1.33919E-9	1.65099E-9
-59.7500E+0	1.32367E-9	1.67748E-9	1.36703E-9	1.68051E-9
-59.8000E+0	1.40458E-9	1.71523E-9	1.39700E-9	1.71080E-9
-59.8500E+0	1.42153E-9	1.70012E-9	1.43001E-9	1.74210E-9
-59.9000E+0	1.49101E-9	1.79218E-9	1.46178E-9	1.77399E-9
-59.9500E+0	1.45150E-9	1.79531E-9	1.49433E-9	1.80660E-9
-60.0000E+0	1.54447E-9	1.84088E-9	1.52766E-9	1.83996E-9
-60.0500E+0	1.57511E-9	1.87226E-9	1.55967E-9	1.87418E-9
-60.1000E+0	1.62678E-9	1.91169E-9	1.59264E-9	1.90895E-9
-60.1500E+0	1.62772E-9	1.94404E-9	1.62366E-9	1.94430E-9
-60.2000E+0	1.65299E-9	1.97452E-9	1.65493E-9	1.98108E-9
-60.2500E+0	1.68621E-9	2.01239E-9	1.68500E-9	2.01708E-9
-60.3000E+0	1.72424E-9	2.04987E-9	1.71788E-9	2.04567E-9
-60.3500E+0	1.66926E-9	2.08770E-9	1.74895E-9	2.06774E-9
-60.4000E+0	1.78869E-9	2.12593E-9	1.78086E-9	2.08533E-9
-60.4500E+0	1.82629E-9	2.17017E-9	1.81324E-9	2.09850E-9
-60.5000E+0	1.85468E-9	2.19635E-9	1.84745E-9	2.10798E-9
-60.5500E+0	1.88307E-9	2.25747E-9	1.88223E-9	2.11492E-9
-60.6000E+0	1.92307E-9	2.06395E-9	1.91867E-9	2.12040E-9
-60.6500E+0	1.95047E-9	2.01465E-9	1.95818E-9	2.12641E-9
-60.7000E+0	1.98326E-9	2.04221E-9	2.00318E-9	2.13472E-9
-60.7500E+0	2.02381E-9	2.08360E-9	2.04721E-9	2.14633E-9
-60.8000E+0	2.05955E-9	2.12433E-9	2.09395E-9	2.16252E-9
-60.8500E+0	2.09312E-9	2.16701E-9	2.14124E-9	2.18396E-9
-60.9000E+0	2.16557E-9	2.20422E-9	2.19017E-9	2.21069E-9
-60.9500E+0	2.26543E-9	2.24629E-9	2.24074E-9	2.24879E-9
-61.0000E+0	2.33825E-9	2.28854E-9	2.29246E-9	2.29166E-9
-61.0500E+0	2.37603E-9	2.31941E-9	2.34251E-9	2.33532E-9
-61.1000E+0	2.42546E-9	2.36653E-9	2.39325E-9	2.38038E-9
-61.1500E+0	2.41639E-9	2.40587E-9	2.44305E-9	2.42666E-9
-61.2000E+0	2.46678E-9	2.47929E-9	2.49139E-9	2.47384E-9
-61.2500E+0	2.54191E-9	2.52552E-9	2.53765E-9	2.52173E-9
-61.3000E+0	2.60056E-9	2.57848E-9	2.58221E-9	2.56851E-9
-61.3500E+0	2.60222E-9	2.60724E-9	2.62611E-9	2.61508E-9
-61.4000E+0	2.69366E-9	2.67075E-9	2.67008E-9	2.66041E-9
-61.4500E+0	2.72884E-9	2.72418E-9	2.71480E-9	2.70580E-9
-61.5000E+0	2.75200E-9	2.77161E-9	2.76188E-9	2.75118E-9
-61.5500E+0	2.79273E-9	2.81295E-9	2.80769E-9	2.79523E-9
-61.6000E+0	2.85164E-9	2.81999E-9	2.85294E-9	2.84017E-9
-61.6500E+0	2.89702E-9	2.86917E-9	2.89721E-9	2.88500E-9
-61.7000E+0	2.93026E-9	2.88923E-9	2.94461E-9	2.93204E-9
-61.7500E+0	2.99687E-9	2.96923E-9	2.99281E-9	2.98059E-9
-61.8000E+0	3.05646E-9	3.02953E-9	3.04172E-9	3.02993E-9
-61.8500E+0	3.07339E-9	3.07184E-9	3.09261E-9	3.08127E-9
-61.9000E+0	3.13103E-9	3.13869E-9	3.14320E-9	3.13380E-9
-61.9500E+0	3.15299E-9	3.17214E-9	3.19408E-9	3.18866E-9
-62.0000E+0	3.24594E-9	3.24490E-9	3.24594E-9	3.24490E-9
